## w(eV)         sigma(Sm^-1)     kappa(W(mK)^-1)        L12/e(Am^-1)      L22/e^2(Wm^-1)
    0.01              184103             6385.19        -6.90334e+06         8.63741e+08
    0.03              184102              6385.4        -6.90357e+06         8.63779e+08
    0.05              184101             6385.82        -6.90403e+06         8.63855e+08
    0.07              184100             6386.45        -6.90472e+06         8.63969e+08
    0.09              184098             6387.29        -6.90565e+06         8.64121e+08
    0.11              184095             6388.35         -6.9068e+06         8.64311e+08
    0.13              184092             6389.61        -6.90819e+06         8.64539e+08
    0.15              184088             6391.08        -6.90981e+06         8.64806e+08
    0.17              184083             6392.76        -6.91166e+06          8.6511e+08
    0.19              184079             6394.65        -6.91374e+06         8.65452e+08
    0.21              184073             6396.75        -6.91605e+06         8.65832e+08
    0.23              184067             6399.06        -6.91859e+06         8.66251e+08
    0.25              184061             6401.58        -6.92136e+06         8.66707e+08
    0.27              184054             6404.31        -6.92436e+06         8.67201e+08
    0.29              184046             6407.25         -6.9276e+06         8.67733e+08
    0.31              184038             6410.39        -6.93106e+06         8.68303e+08
    0.33              184029             6413.74        -6.93475e+06         8.68911e+08
    0.35              184020              6417.3        -6.93868e+06         8.69557e+08
    0.37              184010             6421.06        -6.94283e+06         8.70241e+08
    0.39              184000             6425.03        -6.94722e+06         8.70963e+08
    0.41              183989              6429.2        -6.95183e+06         8.71722e+08
    0.43              183978             6433.58        -6.95667e+06         8.72519e+08
    0.45              183966             6438.17        -6.96175e+06         8.73354e+08
    0.47              183954             6442.96        -6.96705e+06         8.74227e+08
    0.49              183941             6447.95        -6.97258e+06         8.75138e+08
    0.51              183927             6453.14        -6.97834e+06         8.76086e+08
    0.53              183913             6458.54        -6.98433e+06         8.77072e+08
    0.55              183899             6464.14        -6.99055e+06         8.78096e+08
    0.57              183884             6469.93        -6.99699e+06         8.79157e+08
    0.59              183868             6475.93        -7.00367e+06         8.80256e+08
    0.61              183852             6482.13        -7.01057e+06         8.81392e+08
    0.63              183836             6488.52         -7.0177e+06         8.82566e+08
    0.65              183818             6495.11        -7.02506e+06         8.83778e+08
    0.67              183801              6501.9        -7.03264e+06         8.85027e+08
    0.69              183783             6508.89        -7.04045e+06         8.86313e+08
    0.71              183764             6516.07        -7.04849e+06         8.87637e+08
    0.73              183745             6523.44        -7.05676e+06         8.88998e+08
    0.75              183725             6531.01        -7.06525e+06         8.90397e+08
    0.77              183705             6538.77        -7.07397e+06         8.91833e+08
    0.79              183684             6546.72        -7.08291e+06         8.93305e+08
    0.81              183663             6554.85        -7.09208e+06         8.94816e+08
    0.83              183641             6563.18        -7.10147e+06         8.96363e+08
    0.85              183619              6571.7        -7.11109e+06         8.97947e+08
    0.87              183597              6580.4        -7.12093e+06         8.99569e+08
    0.89              183573             6589.29        -7.13099e+06         9.01227e+08
    0.91              183550             6598.36        -7.14128e+06         9.02923e+08
    0.93              183525             6607.62         -7.1518e+06         9.04655e+08
    0.95              183501             6617.06        -7.16253e+06         9.06424e+08
    0.97              183476             6626.68        -7.17349e+06          9.0823e+08
    0.99              183450             6636.48        -7.18467e+06         9.10072e+08
    1.01              183424             6646.45        -7.19608e+06         9.11952e+08
    1.03              183397             6656.61         -7.2077e+06         9.13868e+08
    1.05              183370             6666.94        -7.21955e+06          9.1582e+08
    1.07              183343             6677.44        -7.23161e+06         9.17809e+08
    1.09              183315             6688.12         -7.2439e+06         9.19834e+08
    1.11              183286             6698.97         -7.2564e+06         9.21896e+08
    1.13              183257             6709.99        -7.26913e+06         9.23994e+08
    1.15              183228             6721.18        -7.28207e+06         9.26128e+08
    1.17              183198             6732.54        -7.29524e+06         9.28299e+08
    1.19              183167             6744.06        -7.30862e+06         9.30505e+08
    1.21              183136             6755.74        -7.32222e+06         9.32748e+08
    1.23              183105             6767.59        -7.33603e+06         9.35026e+08
    1.25              183073              6779.6        -7.35006e+06         9.37341e+08
    1.27              183041             6791.77        -7.36431e+06         9.39691e+08
    1.29              183009              6804.1        -7.37877e+06         9.42077e+08
    1.31              182975             6816.59        -7.39345e+06         9.44498e+08
    1.33              182942             6829.22        -7.40834e+06         9.46955e+08
    1.35              182908             6842.02        -7.42345e+06         9.49448e+08
    1.37              182873             6854.96        -7.43877e+06         9.51976e+08
    1.39              182839             6868.06         -7.4543e+06         9.54539e+08
    1.41              182803              6881.3        -7.47005e+06         9.57138e+08
    1.43              182768             6894.68        -7.48601e+06         9.59771e+08
    1.45              182731             6908.22        -7.50217e+06          9.6244e+08
    1.47              182695             6921.89        -7.51855e+06         9.65144e+08
    1.49              182658             6935.71        -7.53514e+06         9.67882e+08
    1.51              182620             6949.66        -7.55194e+06         9.70656e+08
    1.53              182583             6963.75        -7.56894e+06         9.73464e+08
    1.55              182544             6977.98        -7.58616e+06         9.76306e+08
    1.57              182506             6992.34        -7.60358e+06         9.79183e+08
    1.59              182467             7006.83         -7.6212e+06         9.82095e+08
    1.61              182427             7021.45        -7.63904e+06          9.8504e+08
    1.63              182387              7036.2        -7.65708e+06          9.8802e+08
    1.65              182347             7051.07        -7.67532e+06         9.91034e+08
    1.67              182306             7066.07        -7.69376e+06         9.94082e+08
    1.69              182265             7081.19        -7.71241e+06         9.97164e+08
    1.71              182224             7096.43        -7.73127e+06         1.00028e+09
    1.73              182182             7111.78        -7.75032e+06         1.00343e+09
    1.75              182140             7127.25        -7.76958e+06         1.00661e+09
    1.77              182097             7142.84        -7.78903e+06         1.00983e+09
    1.79              182054             7158.53        -7.80868e+06         1.01308e+09
    1.81              182011             7174.33        -7.82854e+06         1.01636e+09
    1.83              181967             7190.24        -7.84859e+06         1.01967e+09
    1.85              181923             7206.25        -7.86883e+06         1.02302e+09
    1.87              181879             7222.37        -7.88928e+06          1.0264e+09
    1.89              181834             7238.59        -7.90991e+06         1.02982e+09
    1.91              181789              7254.9        -7.93075e+06         1.03326e+09
    1.93              181743             7271.31        -7.95177e+06         1.03674e+09
    1.95              181697             7287.81        -7.97299e+06         1.04025e+09
    1.97              181651              7304.4         -7.9944e+06          1.0438e+09
    1.99              181604             7321.09          -8.016e+06         1.04737e+09
    2.01              181557             7337.85        -8.03779e+06         1.05098e+09
    2.03              181510             7354.71        -8.05977e+06         1.05462e+09
    2.05              181462             7371.64        -8.08194e+06         1.05829e+09
    2.07              181414             7388.65         -8.1043e+06         1.06199e+09
    2.09              181366             7405.74        -8.12684e+06         1.06572e+09
    2.11              181317             7422.91        -8.14957e+06         1.06948e+09
    2.13              181268             7440.14        -8.17248e+06         1.07328e+09
    2.15              181219             7457.45        -8.19557e+06         1.07711e+09
    2.17              181169             7474.82        -8.21885e+06         1.08096e+09
    2.19              181119             7492.26        -8.24231e+06         1.08485e+09
    2.21              181069             7509.76        -8.26594e+06         1.08877e+09
    2.23              181019             7527.32        -8.28976e+06         1.09271e+09
    2.25              180968             7544.94        -8.31375e+06         1.09669e+09
    2.27              180917             7562.61        -8.33793e+06          1.1007e+09
    2.29              180865             7580.33        -8.36227e+06         1.10473e+09
    2.31              180813             7598.11         -8.3868e+06          1.1088e+09
    2.33              180761             7615.93        -8.41149e+06          1.1129e+09
    2.35              180709              7633.8        -8.43636e+06         1.11702e+09
    2.37              180656             7651.71         -8.4614e+06         1.12117e+09
    2.39              180603             7669.65        -8.48661e+06         1.12536e+09
    2.41              180549             7687.64        -8.51199e+06         1.12957e+09
    2.43              180496             7705.66        -8.53754e+06         1.13381e+09
    2.45              180442             7723.71        -8.56325e+06         1.13807e+09
    2.47              180388             7741.79        -8.58913e+06         1.14237e+09
    2.49              180333              7759.9        -8.61518e+06         1.14669e+09
    2.51              180278             7778.03        -8.64138e+06         1.15104e+09
    2.53              180223             7796.19        -8.66775e+06         1.15542e+09
    2.55              180168             7814.36        -8.69428e+06         1.15983e+09
    2.57              180112             7832.55        -8.72097e+06         1.16426e+09
    2.59              180057             7850.75        -8.74782e+06         1.16872e+09
    2.61              180000             7868.97        -8.77482e+06         1.17321e+09
    2.63              179944             7887.19        -8.80198e+06         1.17772e+09
    2.65              179887             7905.41        -8.82929e+06         1.18226e+09
    2.67              179830             7923.64        -8.85675e+06         1.18683e+09
    2.69              179773             7941.88        -8.88437e+06         1.19142e+09
    2.71              179716              7960.1        -8.91214e+06         1.19604e+09
    2.73              179658             7978.33        -8.94005e+06         1.20068e+09
    2.75              179600             7996.54        -8.96812e+06         1.20535e+09
    2.77              179542             8014.75        -8.99632e+06         1.21004e+09
    2.79              179483             8032.94        -9.02468e+06         1.21476e+09
    2.81              179424             8051.12        -9.05317e+06          1.2195e+09
    2.83              179365             8069.28        -9.08181e+06         1.22426e+09
    2.85              179306             8087.42        -9.11058e+06         1.22905e+09
    2.87              179246             8105.53         -9.1395e+06         1.23387e+09
    2.89              179187             8123.62        -9.16855e+06          1.2387e+09
    2.91              179127             8141.68        -9.19774e+06         1.24356e+09
    2.93              179066             8159.71        -9.22706e+06         1.24845e+09
    2.95              179006              8177.7        -9.25651e+06         1.25336e+09
    2.97              178945             8195.66         -9.2861e+06         1.25828e+09
    2.99              178884             8213.57        -9.31581e+06         1.26324e+09
    3.01              178823             8231.45        -9.34566e+06         1.26821e+09
    3.03              178761             8249.28        -9.37562e+06         1.27321e+09
    3.05              178699             8267.06        -9.40572e+06         1.27822e+09
    3.07              178637             8284.79        -9.43593e+06         1.28326e+09
    3.09              178575             8302.47        -9.46627e+06         1.28832e+09
    3.11              178513              8320.1        -9.49673e+06          1.2934e+09
    3.13              178450             8337.66         -9.5273e+06          1.2985e+09
    3.15              178387             8355.17        -9.55799e+06         1.30362e+09
    3.17              178324             8372.61         -9.5888e+06         1.30877e+09
    3.19              178260             8389.99        -9.61971e+06         1.31393e+09
    3.21              178197             8407.29        -9.65074e+06         1.31911e+09
    3.23              178133             8424.53        -9.68188e+06         1.32431e+09
    3.25              178069             8441.69        -9.71313e+06         1.32953e+09
    3.27              178004             8458.78        -9.74448e+06         1.33476e+09
    3.29              177940             8475.79        -9.77594e+06         1.34002e+09
    3.31              177875             8492.71         -9.8075e+06         1.34529e+09
    3.33              177810             8509.56        -9.83916e+06         1.35059e+09
    3.35              177744             8526.31        -9.87091e+06         1.35589e+09
    3.37              177679             8542.98        -9.90277e+06         1.36122e+09
    3.39              177613             8559.56        -9.93472e+06         1.36656e+09
    3.41              177547             8576.04        -9.96676e+06         1.37192e+09
    3.43              177480             8592.42         -9.9989e+06          1.3773e+09
    3.45              177414             8608.71        -1.00311e+07         1.38269e+09
    3.47              177347              8624.9        -1.00634e+07          1.3881e+09
    3.49              177280             8640.98        -1.00958e+07         1.39352e+09
    3.51              177213             8656.96        -1.01283e+07         1.39896e+09
    3.53              177145             8672.82        -1.01609e+07         1.40442e+09
    3.55              177078             8688.58        -1.01935e+07         1.40988e+09
    3.57              177010             8704.22        -1.02262e+07         1.41537e+09
    3.59              176941             8719.75         -1.0259e+07         1.42086e+09
    3.61              176873             8735.16        -1.02919e+07         1.42637e+09
    3.63              176804             8750.45        -1.03248e+07         1.43189e+09
    3.65              176735             8765.62        -1.03579e+07         1.43743e+09
    3.67              176666             8780.66        -1.03909e+07         1.44298e+09
    3.69              176596             8795.58        -1.04241e+07         1.44854e+09
    3.71              176526             8810.36        -1.04573e+07         1.45411e+09
    3.73              176456             8825.02        -1.04906e+07          1.4597e+09
    3.75              176386             8839.54        -1.05239e+07         1.46529e+09
    3.77              176316             8853.92        -1.05573e+07          1.4709e+09
    3.79              176245             8868.17        -1.05907e+07         1.47651e+09
    3.81              176174             8882.28        -1.06242e+07         1.48214e+09
    3.83              176102             8896.24        -1.06578e+07         1.48778e+09
    3.85              176031             8910.06        -1.06914e+07         1.49342e+09
    3.87              175959             8923.74         -1.0725e+07         1.49908e+09
    3.89              175887             8937.26        -1.07587e+07         1.50474e+09
    3.91              175814             8950.63        -1.07925e+07         1.51042e+09
    3.93              175741             8963.86        -1.08262e+07          1.5161e+09
    3.95              175668             8976.92          -1.086e+07         1.52179e+09
    3.97              175595             8989.83        -1.08939e+07         1.52749e+09
    3.99              175522             9002.59        -1.09278e+07         1.53319e+09
    4.01              175448             9015.18        -1.09617e+07          1.5389e+09
    4.03              175374             9027.61        -1.09956e+07         1.54462e+09
    4.05              175299             9039.87        -1.10296e+07         1.55034e+09
    4.07              175224             9051.97        -1.10636e+07         1.55607e+09
    4.09              175149             9063.91        -1.10976e+07          1.5618e+09
    4.11              175074             9075.67        -1.11317e+07         1.56754e+09
    4.13              174998             9087.26        -1.11657e+07         1.57329e+09
    4.15              174922             9098.68        -1.11998e+07         1.57903e+09
    4.17              174846             9109.92        -1.12339e+07         1.58479e+09
    4.19              174769             9120.99         -1.1268e+07         1.59054e+09
    4.21              174692             9131.88        -1.13021e+07          1.5963e+09
    4.23              174615             9142.59        -1.13362e+07         1.60206e+09
    4.25              174538             9153.12        -1.13703e+07         1.60782e+09
    4.27              174460             9163.46        -1.14045e+07         1.61359e+09
    4.29              174381             9173.63        -1.14386e+07         1.61936e+09
    4.31              174303              9183.6        -1.14727e+07         1.62513e+09
    4.33              174224             9193.39        -1.15068e+07          1.6309e+09
    4.35              174144             9202.99        -1.15409e+07         1.63667e+09
    4.37              174065              9212.4         -1.1575e+07         1.64244e+09
    4.39              173985             9221.62        -1.16091e+07          1.6482e+09
    4.41              173904             9230.65        -1.16432e+07         1.65397e+09
    4.43              173824             9239.48        -1.16772e+07         1.65974e+09
    4.45              173743             9248.12        -1.17113e+07         1.66551e+09
    4.47              173661             9256.56        -1.17453e+07         1.67127e+09
    4.49              173579             9264.81        -1.17793e+07         1.67704e+09
    4.51              173497             9272.85        -1.18133e+07         1.68279e+09
    4.53              173414             9280.69        -1.18472e+07         1.68855e+09
    4.55              173331             9288.34        -1.18811e+07          1.6943e+09
    4.57              173248             9295.78         -1.1915e+07         1.70005e+09
    4.59              173164             9303.02        -1.19488e+07          1.7058e+09
    4.61              173080             9310.05        -1.19826e+07         1.71154e+09
    4.63              172995             9316.88        -1.20164e+07         1.71728e+09
    4.65              172910              9323.5        -1.20501e+07         1.72301e+09
    4.67              172824             9329.92        -1.20837e+07         1.72873e+09
    4.69              172738             9336.12        -1.21174e+07         1.73445e+09
    4.71              172652             9342.12        -1.21509e+07         1.74016e+09
    4.73              172565             9347.91        -1.21844e+07         1.74587e+09
    4.75              172478             9353.48        -1.22179e+07         1.75156e+09
    4.77              172390             9358.85        -1.22513e+07         1.75725e+09
    4.79              172302                9364        -1.22846e+07         1.76294e+09
    4.81              172213             9368.94        -1.23179e+07         1.76861e+09
    4.83              172124             9373.67        -1.23511e+07         1.77427e+09
    4.85              172034             9378.19        -1.23843e+07         1.77993e+09
    4.87              171944             9382.48        -1.24173e+07         1.78557e+09
    4.89              171854             9386.57        -1.24503e+07         1.79121e+09
    4.91              171763             9390.44        -1.24833e+07         1.79683e+09
    4.93              171671             9394.09        -1.25161e+07         1.80244e+09
    4.95              171579             9397.52        -1.25489e+07         1.80805e+09
    4.97              171487             9400.74        -1.25816e+07         1.81364e+09
    4.99              171393             9403.74        -1.26142e+07         1.81921e+09
    5.01              171300             9406.52        -1.26467e+07         1.82478e+09
    5.03              171206             9409.09        -1.26791e+07         1.83033e+09
    5.05              171111             9411.43        -1.27114e+07         1.83587e+09
    5.07              171016             9413.56        -1.27437e+07         1.84139e+09
    5.09              170920             9415.46        -1.27758e+07         1.84691e+09
    5.11              170824             9417.15        -1.28078e+07          1.8524e+09
    5.13              170727             9418.62        -1.28398e+07         1.85788e+09
    5.15              170629             9419.87        -1.28716e+07         1.86335e+09
    5.17              170531              9420.9        -1.29033e+07          1.8688e+09
    5.19              170433             9421.71        -1.29349e+07         1.87423e+09
    5.21              170333              9422.3        -1.29664e+07         1.87965e+09
    5.23              170234             9422.67        -1.29978e+07         1.88505e+09
    5.25              170133             9422.82        -1.30291e+07         1.89043e+09
    5.27              170032             9422.75        -1.30602e+07          1.8958e+09
    5.29              169931             9422.46        -1.30912e+07         1.90114e+09
    5.31              169828             9421.95        -1.31221e+07         1.90647e+09
    5.33              169726             9421.22        -1.31529e+07         1.91178e+09
    5.35              169622             9420.28        -1.31835e+07         1.91707e+09
    5.37              169518             9419.11        -1.32141e+07         1.92234e+09
    5.39              169413             9417.72        -1.32444e+07         1.92759e+09
    5.41              169308             9416.12        -1.32747e+07         1.93282e+09
    5.43              169202              9414.3        -1.33048e+07         1.93803e+09
    5.45              169095             9412.26        -1.33347e+07         1.94322e+09
    5.47              168988                9410        -1.33645e+07         1.94838e+09
    5.49              168879             9407.53        -1.33942e+07         1.95352e+09
    5.51              168771             9404.84        -1.34237e+07         1.95865e+09
    5.53              168661             9401.93        -1.34531e+07         1.96374e+09
    5.55              168551             9398.81        -1.34823e+07         1.96882e+09
    5.57              168440             9395.47        -1.35114e+07         1.97387e+09
    5.59              168329             9391.91        -1.35403e+07          1.9789e+09
    5.61              168216             9388.15         -1.3569e+07          1.9839e+09
    5.63              168103             9384.17        -1.35976e+07         1.98888e+09
    5.65              167989             9379.97         -1.3626e+07         1.99383e+09
    5.67              167875             9375.57        -1.36543e+07         1.99876e+09
    5.69              167760             9370.95        -1.36824e+07         2.00366e+09
    5.71              167644             9366.12        -1.37103e+07         2.00853e+09
    5.73              167527             9361.08         -1.3738e+07         2.01338e+09
    5.75              167409             9355.83        -1.37656e+07          2.0182e+09
    5.77              167291             9350.38        -1.37929e+07         2.02299e+09
    5.79              167172             9344.71        -1.38201e+07         2.02776e+09
    5.81              167052             9338.84        -1.38471e+07          2.0325e+09
    5.83              166931             9332.76         -1.3874e+07         2.03721e+09
    5.85              166810             9326.48        -1.39006e+07         2.04189e+09
    5.87              166688             9319.99        -1.39271e+07         2.04654e+09
    5.89              166565              9313.3        -1.39533e+07         2.05116e+09
    5.91              166441             9306.41        -1.39794e+07         2.05576e+09
    5.93              166316             9299.31        -1.40053e+07         2.06032e+09
    5.95              166190             9292.02         -1.4031e+07         2.06485e+09
    5.97              166064             9284.52        -1.40564e+07         2.06935e+09
    5.99              165937             9276.83        -1.40817e+07         2.07382e+09
    6.01              165809             9268.94        -1.41068e+07         2.07826e+09
    6.03              165680             9260.85        -1.41317e+07         2.08266e+09
    6.05              165550             9252.57        -1.41563e+07         2.08704e+09
    6.07              165419             9244.09        -1.41808e+07         2.09138e+09
    6.09              165288             9235.42         -1.4205e+07         2.09569e+09
    6.11              165155             9226.56         -1.4229e+07         2.09996e+09
    6.13              165022             9217.51        -1.42528e+07          2.1042e+09
    6.15              164888             9208.27        -1.42764e+07         2.10841e+09
    6.17              164753             9198.84        -1.42998e+07         2.11258e+09
    6.19              164617             9189.23        -1.43229e+07         2.11672e+09
    6.21              164480             9179.42        -1.43458e+07         2.12083e+09
    6.23              164342             9169.44        -1.43685e+07          2.1249e+09
    6.25              164203             9159.27         -1.4391e+07         2.12893e+09
    6.27              164063             9148.92        -1.44132e+07         2.13293e+09
    6.29              163923             9138.39        -1.44352e+07         2.13689e+09
    6.31              163781             9127.68         -1.4457e+07         2.14082e+09
    6.33              163639             9116.79        -1.44786e+07         2.14471e+09
    6.35              163495             9105.73        -1.44999e+07         2.14856e+09
    6.37              163351             9094.49        -1.45209e+07         2.15237e+09
    6.39              163205             9083.08        -1.45418e+07         2.15615e+09
    6.41              163059              9071.5        -1.45624e+07         2.15989e+09
    6.43              162912             9059.75        -1.45827e+07         2.16359e+09
    6.45              162763             9047.83        -1.46028e+07         2.16726e+09
    6.47              162614             9035.74        -1.46226e+07         2.17088e+09
    6.49              162464             9023.48        -1.46423e+07         2.17447e+09
    6.51              162313             9011.06        -1.46616e+07         2.17802e+09
    6.53              162160             8998.48        -1.46807e+07         2.18152e+09
    6.55              162007             8985.73        -1.46996e+07         2.18499e+09
    6.57              161853             8972.83        -1.47182e+07         2.18842e+09
    6.59              161698             8959.77        -1.47365e+07         2.19181e+09
    6.61              161541             8946.55        -1.47546e+07         2.19516e+09
    6.63              161384             8933.17        -1.47724e+07         2.19847e+09
    6.65              161226             8919.64          -1.479e+07         2.20173e+09
    6.67              161066             8905.97        -1.48073e+07         2.20496e+09
    6.69              160906             8892.14        -1.48243e+07         2.20815e+09
    6.71              160745             8878.16        -1.48411e+07         2.21129e+09
    6.73              160582             8864.03        -1.48576e+07         2.21439e+09
    6.75              160419             8849.76        -1.48739e+07         2.21745e+09
    6.77              160254             8835.35        -1.48899e+07         2.22047e+09
    6.79              160089             8820.79        -1.49056e+07         2.22345e+09
    6.81              159922             8806.09         -1.4921e+07         2.22638e+09
    6.83              159754             8791.26        -1.49362e+07         2.22927e+09
    6.85              159586             8776.28        -1.49511e+07         2.23212e+09
    6.87              159416             8761.17        -1.49657e+07         2.23492e+09
    6.89              159245             8745.93        -1.49801e+07         2.23769e+09
    6.91              159073             8730.56        -1.49941e+07          2.2404e+09
    6.93              158900             8715.05        -1.50079e+07         2.24308e+09
    6.95              158726             8699.42        -1.50214e+07         2.24571e+09
    6.97              158551             8683.66        -1.50347e+07          2.2483e+09
    6.99              158375             8667.78        -1.50476e+07         2.25084e+09
    7.01              158198             8651.77        -1.50603e+07         2.25334e+09
    7.03              158019             8635.64        -1.50727e+07         2.25579e+09
    7.05              157840             8619.39        -1.50848e+07          2.2582e+09
    7.07              157659             8603.02        -1.50967e+07         2.26057e+09
    7.09              157478             8586.54        -1.51082e+07         2.26289e+09
    7.11              157295             8569.94        -1.51195e+07         2.26517e+09
    7.13              157111             8553.23        -1.51305e+07          2.2674e+09
    7.15              156926             8536.41        -1.51412e+07         2.26958e+09
    7.17              156740             8519.48        -1.51516e+07         2.27172e+09
    7.19              156553             8502.44        -1.51617e+07         2.27382e+09
    7.21              156365              8485.3        -1.51715e+07         2.27587e+09
    7.23              156176             8468.05        -1.51811e+07         2.27787e+09
    7.25              155986              8450.7        -1.51903e+07         2.27983e+09
    7.27              155794             8433.25        -1.51993e+07         2.28174e+09
    7.29              155602              8415.7        -1.52079e+07         2.28361e+09
    7.31              155408             8398.05        -1.52163e+07         2.28543e+09
    7.33              155214             8380.31        -1.52244e+07          2.2872e+09
    7.35              155018             8362.47        -1.52322e+07         2.28893e+09
    7.37              154821             8344.54        -1.52397e+07         2.29061e+09
    7.39              154623             8326.53        -1.52469e+07         2.29225e+09
    7.41              154424             8308.42        -1.52538e+07         2.29384e+09
    7.43              154224             8290.23        -1.52605e+07         2.29538e+09
    7.45              154023             8271.96        -1.52668e+07         2.29688e+09
    7.47              153820              8253.6        -1.52728e+07         2.29833e+09
    7.49              153617             8235.16        -1.52786e+07         2.29973e+09
    7.51              153413             8216.64         -1.5284e+07         2.30109e+09
    7.53              153207             8198.04        -1.52892e+07          2.3024e+09
    7.55              153000             8179.37         -1.5294e+07         2.30366e+09
    7.57              152793             8160.63        -1.52986e+07         2.30488e+09
    7.59              152584             8141.81        -1.53029e+07         2.30605e+09
    7.61              152374             8122.92        -1.53069e+07         2.30717e+09
    7.63              152163             8103.96        -1.53105e+07         2.30825e+09
    7.65              151951             8084.94        -1.53139e+07         2.30927e+09
    7.67              151738             8065.85         -1.5317e+07         2.31026e+09
    7.69              151523              8046.7        -1.53198e+07         2.31119e+09
    7.71              151308             8027.48        -1.53223e+07         2.31208e+09
    7.73              151092             8008.21        -1.53245e+07         2.31293e+09
    7.75              150874             7988.88        -1.53264e+07         2.31372e+09
    7.77              150656             7969.49         -1.5328e+07         2.31447e+09
    7.79              150436             7950.04        -1.53293e+07         2.31518e+09
    7.81              150216             7930.54        -1.53304e+07         2.31583e+09
    7.83              149994             7910.99        -1.53311e+07         2.31644e+09
    7.85              149772              7891.4        -1.53316e+07           2.317e+09
    7.87              149548             7871.75        -1.53317e+07         2.31752e+09
    7.89              149323             7852.05        -1.53316e+07         2.31799e+09
    7.91              149098             7832.32        -1.53311e+07         2.31842e+09
    7.93              148871             7812.53        -1.53304e+07         2.31879e+09
    7.95              148643             7792.71        -1.53294e+07         2.31912e+09
    7.97              148414             7772.85        -1.53281e+07         2.31941e+09
    7.99              148184             7752.95        -1.53265e+07         2.31965e+09
    8.01              147953             7733.01        -1.53246e+07         2.31984e+09
    8.03              147722             7713.04        -1.53224e+07         2.31999e+09
    8.05              147489             7693.03        -1.53199e+07         2.32009e+09
    8.07              147255             7672.99        -1.53172e+07         2.32015e+09
    8.09              147020             7652.93        -1.53141e+07         2.32016e+09
    8.11              146784             7632.83        -1.53108e+07         2.32012e+09
    8.13              146547             7612.71        -1.53072e+07         2.32004e+09
    8.15              146310             7592.56        -1.53033e+07         2.31992e+09
    8.17              146071             7572.39        -1.52991e+07         2.31974e+09
    8.19              145831             7552.19        -1.52946e+07         2.31953e+09
    8.21              145590             7531.98        -1.52899e+07         2.31927e+09
    8.23              145349             7511.75        -1.52849e+07         2.31896e+09
    8.25              145106              7491.5        -1.52796e+07         2.31861e+09
    8.27              144863             7471.23         -1.5274e+07         2.31821e+09
    8.29              144619             7450.95        -1.52681e+07         2.31778e+09
    8.31              144373             7430.65        -1.52619e+07         2.31729e+09
    8.33              144127             7410.35        -1.52555e+07         2.31676e+09
    8.35              143880             7390.03        -1.52488e+07         2.31619e+09
    8.37              143632             7369.71        -1.52418e+07         2.31558e+09
    8.39              143383             7349.38        -1.52346e+07         2.31492e+09
    8.41              143133             7329.05        -1.52271e+07         2.31421e+09
    8.43              142882             7308.71        -1.52193e+07         2.31347e+09
    8.45              142631             7288.36        -1.52112e+07         2.31268e+09
    8.47              142379             7268.02        -1.52029e+07         2.31185e+09
    8.49              142125             7247.68        -1.51943e+07         2.31097e+09
    8.51              141871             7227.34        -1.51854e+07         2.31006e+09
    8.53              141616                7207        -1.51763e+07          2.3091e+09
    8.55              141361             7186.67        -1.51669e+07         2.30809e+09
    8.57              141104             7166.34        -1.51572e+07         2.30705e+09
    8.59              140847             7146.02        -1.51473e+07         2.30597e+09
    8.61              140588             7125.71        -1.51371e+07         2.30484e+09
    8.63              140330             7105.41        -1.51266e+07         2.30367e+09
    8.65              140070             7085.12        -1.51159e+07         2.30246e+09
    8.67              139809             7064.84         -1.5105e+07         2.30121e+09
    8.69              139548             7044.58        -1.50938e+07         2.29992e+09
    8.71              139286             7024.33        -1.50823e+07         2.29859e+09
    8.73              139023              7004.1        -1.50706e+07         2.29722e+09
    8.75              138760             6983.89        -1.50586e+07         2.29581e+09
    8.77              138496              6963.7        -1.50464e+07         2.29436e+09
    8.79              138231             6943.52        -1.50339e+07         2.29287e+09
    8.81              137965             6923.37        -1.50212e+07         2.29134e+09
    8.83              137699             6903.25        -1.50083e+07         2.28977e+09
    8.85              137432             6883.15        -1.49951e+07         2.28816e+09
    8.87              137164             6863.07        -1.49816e+07         2.28651e+09
    8.89              136896             6843.02         -1.4968e+07         2.28483e+09
    8.91              136627                6823        -1.49541e+07         2.28311e+09
    8.93              136357                6803        -1.49399e+07         2.28135e+09
    8.95              136087             6783.04        -1.49255e+07         2.27955e+09
    8.97              135816             6763.11        -1.49109e+07         2.27772e+09
    8.99              135545             6743.21        -1.48961e+07         2.27585e+09
    9.01              135273             6723.35         -1.4881e+07         2.27394e+09
    9.03              135000             6703.52        -1.48657e+07         2.27199e+09
    9.05              134727             6683.73        -1.48502e+07         2.27001e+09
    9.07              134453             6663.97        -1.48344e+07           2.268e+09
    9.09              134179             6644.26        -1.48184e+07         2.26594e+09
    9.11              133904             6624.58        -1.48022e+07         2.26386e+09
    9.13              133629             6604.94        -1.47858e+07         2.26173e+09
    9.15              133353             6585.35        -1.47692e+07         2.25958e+09
    9.17              133076              6565.8        -1.47524e+07         2.25739e+09
    9.19              132799             6546.29        -1.47353e+07         2.25516e+09
    9.21              132522             6526.83         -1.4718e+07          2.2529e+09
    9.23              132244             6507.41        -1.47006e+07         2.25061e+09
    9.25              131966             6488.04        -1.46829e+07         2.24829e+09
    9.27              131687             6468.72         -1.4665e+07         2.24593e+09
    9.29              131408             6449.44        -1.46469e+07         2.24354e+09
    9.31              131129             6430.22        -1.46286e+07         2.24111e+09
    9.33              130849             6411.05        -1.46101e+07         2.23866e+09
    9.35              130568             6391.93        -1.45915e+07         2.23617e+09
    9.37              130287             6372.86        -1.45726e+07         2.23365e+09
    9.39              130006             6353.84        -1.45535e+07          2.2311e+09
    9.41              129725             6334.88        -1.45343e+07         2.22852e+09
    9.43              129443             6315.98        -1.45148e+07         2.22591e+09
    9.45              129161             6297.13        -1.44952e+07         2.22327e+09
    9.47              128878             6278.34        -1.44754e+07          2.2206e+09
    9.49              128596             6259.61        -1.44554e+07         2.21791e+09
    9.51              128313             6240.94        -1.44352e+07         2.21518e+09
    9.53              128029             6222.32        -1.44148e+07         2.21242e+09
    9.55              127746             6203.77        -1.43943e+07         2.20963e+09
    9.57              127462             6185.28        -1.43736e+07         2.20682e+09
    9.59              127178             6166.85        -1.43527e+07         2.20398e+09
    9.61              126893             6148.49        -1.43316e+07         2.20111e+09
    9.63              126609             6130.19        -1.43104e+07         2.19822e+09
    9.65              126324             6111.95         -1.4289e+07         2.19529e+09
    9.67              126039             6093.78        -1.42675e+07         2.19234e+09
    9.69              125754             6075.68        -1.42458e+07         2.18937e+09
    9.71              125469             6057.64        -1.42239e+07         2.18637e+09
    9.73              125183             6039.68        -1.42019e+07         2.18334e+09
    9.75              124898             6021.78        -1.41797e+07         2.18029e+09
    9.77              124612             6003.95        -1.41574e+07         2.17721e+09
    9.79              124326             5986.18        -1.41349e+07         2.17411e+09
    9.81              124040             5968.49        -1.41123e+07         2.17099e+09
    9.83              123754             5950.88        -1.40895e+07         2.16784e+09
    9.85              123468             5933.33        -1.40666e+07         2.16467e+09
    9.87              123182             5915.86        -1.40435e+07         2.16147e+09
    9.89              122896             5898.46        -1.40203e+07         2.15825e+09
    9.91              122610             5881.13         -1.3997e+07         2.15501e+09
    9.93              122323             5863.88        -1.39735e+07         2.15175e+09
    9.95              122037              5846.7        -1.39499e+07         2.14847e+09
    9.97              121751              5829.6        -1.39262e+07         2.14516e+09
    9.99              121465             5812.58        -1.39023e+07         2.14184e+09
   10.01              121179             5795.63        -1.38783e+07         2.13849e+09
   10.03              120892             5778.76        -1.38542e+07         2.13512e+09
   10.05              120606             5761.97          -1.383e+07         2.13173e+09
   10.07              120320             5745.26        -1.38056e+07         2.12833e+09
   10.09              120034             5728.63        -1.37811e+07          2.1249e+09
   10.11              119748             5712.07        -1.37565e+07         2.12145e+09
   10.13              119463              5695.6        -1.37318e+07         2.11799e+09
   10.15              119177             5679.21         -1.3707e+07          2.1145e+09
   10.17              118892              5662.9        -1.36821e+07           2.111e+09
   10.19              118606             5646.67        -1.36571e+07         2.10748e+09
   10.21              118321             5630.52        -1.36319e+07         2.10395e+09
   10.23              118036             5614.46        -1.36067e+07          2.1004e+09
   10.25              117751             5598.48        -1.35814e+07         2.09683e+09
   10.27              117467             5582.58        -1.35559e+07         2.09324e+09
   10.29              117182             5566.77        -1.35304e+07         2.08964e+09
   10.31              116898             5551.04        -1.35048e+07         2.08602e+09
   10.33              116614             5535.39        -1.34791e+07         2.08238e+09
   10.35              116330             5519.83        -1.34533e+07         2.07874e+09
   10.37              116047             5504.36        -1.34274e+07         2.07507e+09
   10.39              115764             5488.97        -1.34014e+07         2.07139e+09
   10.41              115481             5473.67        -1.33753e+07          2.0677e+09
   10.43              115198             5458.46        -1.33492e+07           2.064e+09
   10.45              114916             5443.33        -1.33229e+07         2.06028e+09
   10.47              114634             5428.29        -1.32966e+07         2.05654e+09
   10.49              114352             5413.34        -1.32703e+07          2.0528e+09
   10.51              114071             5398.47        -1.32438e+07         2.04904e+09
   10.53              113790             5383.69        -1.32173e+07         2.04527e+09
   10.55              113509             5369.01        -1.31907e+07         2.04149e+09
   10.57              113229             5354.41         -1.3164e+07         2.03769e+09
   10.59              112949              5339.9        -1.31373e+07         2.03389e+09
   10.61              112670             5325.47        -1.31105e+07         2.03007e+09
   10.63              112391             5311.14        -1.30837e+07         2.02624e+09
   10.65              112112              5296.9        -1.30568e+07         2.02241e+09
   10.67              111834             5282.75        -1.30298e+07         2.01856e+09
   10.69              111556             5268.69        -1.30028e+07          2.0147e+09
   10.71              111279             5254.71        -1.29757e+07         2.01083e+09
   10.73              111002             5240.83        -1.29486e+07         2.00696e+09
   10.75              110726             5227.04        -1.29214e+07         2.00307e+09
   10.77              110450             5213.34        -1.28942e+07         1.99918e+09
   10.79              110174             5199.73        -1.28669e+07         1.99527e+09
   10.81              109899             5186.21        -1.28396e+07         1.99136e+09
   10.83              109625             5172.79        -1.28123e+07         1.98745e+09
   10.85              109351             5159.45        -1.27849e+07         1.98352e+09
   10.87              109078             5146.21        -1.27574e+07         1.97959e+09
   10.89              108805             5133.06          -1.273e+07         1.97565e+09
   10.91              108533             5119.99        -1.27025e+07          1.9717e+09
   10.93              108261             5107.03        -1.26749e+07         1.96774e+09
   10.95              107990             5094.15        -1.26473e+07         1.96378e+09
   10.97              107720             5081.36        -1.26198e+07         1.95982e+09
   10.99              107450             5068.67        -1.25921e+07         1.95585e+09
   11.01              107181             5056.07        -1.25645e+07         1.95187e+09
   11.03              106912             5043.56        -1.25368e+07         1.94789e+09
   11.05              106644             5031.14        -1.25091e+07          1.9439e+09
   11.07              106376             5018.82        -1.24814e+07         1.93991e+09
   11.09              106110             5006.58        -1.24536e+07         1.93591e+09
   11.11              105844             4994.44        -1.24259e+07         1.93191e+09
   11.13              105578             4982.39        -1.23981e+07         1.92791e+09
   11.15              105313             4970.43        -1.23703e+07          1.9239e+09
   11.17              105049             4958.57        -1.23425e+07         1.91989e+09
   11.19              104786             4946.79        -1.23147e+07         1.91587e+09
   11.21              104523             4935.11        -1.22868e+07         1.91185e+09
   11.23              104261             4923.52         -1.2259e+07         1.90783e+09
   11.25              103999             4912.02        -1.22312e+07         1.90381e+09
   11.27              103739             4900.61        -1.22033e+07         1.89978e+09
   11.29              103479              4889.3        -1.21755e+07         1.89576e+09
   11.31              103220             4878.07        -1.21476e+07         1.89173e+09
   11.33              102961             4866.94        -1.21197e+07          1.8877e+09
   11.35              102703              4855.9        -1.20919e+07         1.88366e+09
   11.37              102446             4844.94         -1.2064e+07         1.87963e+09
   11.39              102190             4834.08        -1.20362e+07         1.87559e+09
   11.41              101935             4823.31        -1.20083e+07         1.87156e+09
   11.43              101680             4812.63        -1.19805e+07         1.86752e+09
   11.45              101426             4802.04        -1.19526e+07         1.86348e+09
   11.47              101173             4791.54        -1.19248e+07         1.85944e+09
   11.49              100920             4781.13         -1.1897e+07          1.8554e+09
   11.51              100669             4770.81        -1.18692e+07         1.85136e+09
   11.53              100418             4760.58        -1.18414e+07         1.84733e+09
   11.55              100168             4750.44        -1.18136e+07         1.84329e+09
   11.57             99918.9             4740.39        -1.17858e+07         1.83925e+09
   11.59             99670.6             4730.42        -1.17581e+07         1.83521e+09
   11.61               99423             4720.55        -1.17303e+07         1.83118e+09
   11.63             99176.3             4710.76        -1.17026e+07         1.82714e+09
   11.65             98930.4             4701.06        -1.16749e+07         1.82311e+09
   11.67             98685.3             4691.45        -1.16472e+07         1.81908e+09
   11.69             98441.1             4681.93        -1.16195e+07         1.81505e+09
   11.71             98197.7             4672.49        -1.15919e+07         1.81102e+09
   11.73             97955.2             4663.14        -1.15643e+07         1.80699e+09
   11.75             97713.5             4653.87        -1.15367e+07         1.80296e+09
   11.77             97472.7              4644.7        -1.15091e+07         1.79894e+09
   11.79             97232.7              4635.6        -1.14815e+07         1.79492e+09
   11.81             96993.6              4626.6         -1.1454e+07          1.7909e+09
   11.83             96755.4             4617.68        -1.14265e+07         1.78688e+09
   11.85               96518             4608.84        -1.13991e+07         1.78287e+09
   11.87             96281.5             4600.09        -1.13716e+07         1.77886e+09
   11.89             96045.9             4591.42        -1.13442e+07         1.77485e+09
   11.91             95811.2             4582.83        -1.13168e+07         1.77084e+09
   11.93             95577.3             4574.33        -1.12895e+07         1.76684e+09
   11.95             95344.3             4565.91        -1.12622e+07         1.76284e+09
   11.97             95112.3             4557.58        -1.12349e+07         1.75884e+09
   11.99             94881.1             4549.32        -1.12076e+07         1.75485e+09
   12.01             94650.7             4541.15        -1.11804e+07         1.75086e+09
   12.03             94421.3             4533.06        -1.11533e+07         1.74687e+09
   12.05             94192.8             4525.05        -1.11261e+07         1.74289e+09
   12.07             93965.2             4517.12         -1.1099e+07         1.73891e+09
   12.09             93738.5             4509.27        -1.10719e+07         1.73494e+09
   12.11             93512.7              4501.5        -1.10449e+07         1.73097e+09
   12.13             93287.8              4493.8        -1.10179e+07           1.727e+09
   12.15             93063.7             4486.19         -1.0991e+07         1.72304e+09
   12.17             92840.6             4478.65         -1.0964e+07         1.71908e+09
   12.19             92618.4             4471.19        -1.09372e+07         1.71512e+09
   12.21             92397.1             4463.81        -1.09103e+07         1.71117e+09
   12.23             92176.7             4456.51        -1.08835e+07         1.70722e+09
   12.25             91957.3             4449.28        -1.08568e+07         1.70328e+09
   12.27             91738.7             4442.12        -1.08301e+07         1.69934e+09
   12.29               91521             4435.05        -1.08034e+07         1.69541e+09
   12.31             91304.3             4428.04        -1.07768e+07         1.69148e+09
   12.33             91088.4             4421.11        -1.07502e+07         1.68755e+09
   12.35             90873.5             4414.25        -1.07237e+07         1.68363e+09
   12.37             90659.5             4407.47        -1.06972e+07         1.67972e+09
   12.39             90446.3             4400.75        -1.06707e+07         1.67581e+09
   12.41             90234.1             4394.11        -1.06443e+07          1.6719e+09
   12.43             90022.8             4387.54        -1.06179e+07           1.668e+09
   12.45             89812.4             4381.04        -1.05916e+07          1.6641e+09
   12.47             89602.9             4374.61        -1.05654e+07         1.66021e+09
   12.49             89394.3             4368.25        -1.05391e+07         1.65632e+09
   12.51             89186.6             4361.96        -1.05129e+07         1.65244e+09
   12.53             88979.8             4355.73        -1.04868e+07         1.64856e+09
   12.55             88773.9             4349.58        -1.04607e+07         1.64469e+09
   12.57             88568.9             4343.49        -1.04347e+07         1.64082e+09
   12.59             88364.8             4337.46        -1.04087e+07         1.63696e+09
   12.61             88161.6              4331.5        -1.03827e+07          1.6331e+09
   12.63             87959.3             4325.61        -1.03568e+07         1.62925e+09
   12.65             87757.9             4319.78         -1.0331e+07          1.6254e+09
   12.67             87557.4             4314.01        -1.03052e+07         1.62156e+09
   12.69             87357.7             4308.31        -1.02794e+07         1.61772e+09
   12.71               87159             4302.67        -1.02537e+07         1.61388e+09
   12.73             86961.1             4297.09         -1.0228e+07         1.61005e+09
   12.75             86764.1             4291.57        -1.02024e+07         1.60623e+09
   12.77               86568             4286.11        -1.01768e+07         1.60241e+09
   12.79             86372.7             4280.71        -1.01513e+07         1.59859e+09
   12.81             86178.3             4275.37        -1.01258e+07         1.59478e+09
   12.83             85984.8             4270.09        -1.01004e+07         1.59098e+09
   12.85             85792.2             4264.86         -1.0075e+07         1.58718e+09
   12.87             85600.4              4259.7        -1.00497e+07         1.58338e+09
   12.89             85409.4             4254.58        -1.00244e+07         1.57959e+09
   12.91             85219.4             4249.53        -9.99912e+06          1.5758e+09
   12.93             85030.1             4244.52        -9.97392e+06         1.57202e+09
   12.95             84841.8             4239.58        -9.94877e+06         1.56824e+09
   12.97             84654.2             4234.68        -9.92366e+06         1.56447e+09
   12.99             84467.5             4229.84         -9.8986e+06          1.5607e+09
   13.01             84281.7             4225.05        -9.87359e+06         1.55694e+09
   13.03             84096.6             4220.31        -9.84862e+06         1.55318e+09
   13.05             83912.4             4215.62        -9.82369e+06         1.54942e+09
   13.07               83729             4210.97        -9.79881e+06         1.54567e+09
   13.09             83546.5             4206.38        -9.77398e+06         1.54193e+09
   13.11             83364.7             4201.84        -9.74919e+06         1.53818e+09
   13.13             83183.8             4197.34        -9.72445e+06         1.53444e+09
   13.15             83003.7             4192.89        -9.69975e+06         1.53071e+09
   13.17             82824.3             4188.48        -9.67509e+06         1.52698e+09
   13.19             82645.8             4184.12        -9.65048e+06         1.52325e+09
   13.21               82468             4179.81        -9.62591e+06         1.51953e+09
   13.23             82291.1             4175.53        -9.60139e+06         1.51581e+09
   13.25             82114.9              4171.3        -9.57691e+06         1.51209e+09
   13.27             81939.5             4167.11        -9.55247e+06         1.50838e+09
   13.29             81764.9             4162.96        -9.52807e+06         1.50468e+09
   13.31               81591             4158.85        -9.50372e+06         1.50097e+09
   13.33             81417.9             4154.78         -9.4794e+06         1.49727e+09
   13.35             81245.6             4150.75        -9.45513e+06         1.49357e+09
   13.37               81074             4146.76         -9.4309e+06         1.48988e+09
   13.39             80903.1              4142.8        -9.40671e+06         1.48619e+09
   13.41               80733             4138.88        -9.38256e+06          1.4825e+09
   13.43             80563.6                4135        -9.35845e+06         1.47882e+09
   13.45               80395             4131.15        -9.33438e+06         1.47514e+09
   13.47               80227             4127.33        -9.31035e+06         1.47146e+09
   13.49             80059.8             4123.55        -9.28635e+06         1.46778e+09
   13.51             79893.3             4119.79         -9.2624e+06         1.46411e+09
   13.53             79727.5             4116.07        -9.23848e+06         1.46044e+09
   13.55             79562.5             4112.38         -9.2146e+06         1.45677e+09
   13.57             79398.1             4108.72        -9.19076e+06         1.45311e+09
   13.59             79234.4             4105.09        -9.16695e+06         1.44945e+09
   13.61             79071.3             4101.48        -9.14318e+06         1.44579e+09
   13.63               78909              4097.9        -9.11944e+06         1.44213e+09
   13.65             78747.3             4094.35        -9.09574e+06         1.43848e+09
   13.67             78586.3             4090.82        -9.07207e+06         1.43482e+09
   13.69             78425.9             4087.32        -9.04844e+06         1.43117e+09
   13.71             78266.2             4083.84        -9.02484e+06         1.42752e+09
   13.73             78107.2             4080.39        -9.00128e+06         1.42388e+09
   13.75             77948.8             4076.95        -8.97775e+06         1.42023e+09
   13.77               77791             4073.54        -8.95425e+06         1.41659e+09
   13.79             77633.8             4070.15        -8.93078e+06         1.41295e+09
   13.81             77477.3             4066.77        -8.90734e+06         1.40931e+09
   13.83             77321.4             4063.42        -8.88393e+06         1.40567e+09
   13.85             77166.1             4060.08        -8.86056e+06         1.40203e+09
   13.87             77011.4             4056.76        -8.83721e+06         1.39839e+09
   13.89             76857.3             4053.46        -8.81389e+06         1.39476e+09
   13.91             76703.8             4050.17        -8.79061e+06         1.39113e+09
   13.93             76550.9             4046.89        -8.76735e+06         1.38749e+09
   13.95             76398.5             4043.63        -8.74411e+06         1.38386e+09
   13.97             76246.8             4040.39        -8.72091e+06         1.38023e+09
   13.99             76095.6             4037.15        -8.69773e+06          1.3766e+09
   14.01             75944.9             4033.92        -8.67458e+06         1.37297e+09
   14.03             75794.8             4030.71        -8.65146e+06         1.36934e+09
   14.05             75645.3              4027.5        -8.62836e+06         1.36571e+09
   14.07             75496.3              4024.3        -8.60528e+06         1.36209e+09
   14.09             75347.8             4021.11        -8.58223e+06         1.35846e+09
   14.11             75199.9             4017.93         -8.5592e+06         1.35483e+09
   14.13             75052.4             4014.75         -8.5362e+06          1.3512e+09
   14.15             74905.5             4011.58        -8.51322e+06         1.34758e+09
   14.17             74759.2             4008.41        -8.49026e+06         1.34395e+09
   14.19             74613.3             4005.24        -8.46732e+06         1.34032e+09
   14.21             74467.9             4002.08        -8.44441e+06         1.33669e+09
   14.23               74323             3998.92        -8.42151e+06         1.33307e+09
   14.25             74178.6             3995.76        -8.39864e+06         1.32944e+09
   14.27             74034.6             3992.59        -8.37578e+06         1.32581e+09
   14.29             73891.2             3989.43        -8.35295e+06         1.32218e+09
   14.31             73748.2             3986.27        -8.33013e+06         1.31855e+09
   14.33             73605.7              3983.1        -8.30734e+06         1.31492e+09
   14.35             73463.6             3979.93        -8.28456e+06         1.31129e+09
   14.37               73322             3976.76         -8.2618e+06         1.30765e+09
   14.39             73180.8             3973.58        -8.23905e+06         1.30402e+09
   14.41               73040              3970.4        -8.21632e+06         1.30039e+09
   14.43             72899.7             3967.21        -8.19361e+06         1.29675e+09
   14.45             72759.8             3964.01        -8.17092e+06         1.29311e+09
   14.47             72620.4              3960.8        -8.14824e+06         1.28948e+09
   14.49             72481.3             3957.58        -8.12557e+06         1.28584e+09
   14.51             72342.7             3954.36        -8.10292e+06         1.28219e+09
   14.53             72204.4             3951.12        -8.08029e+06         1.27855e+09
   14.55             72066.6             3947.87        -8.05766e+06         1.27491e+09
   14.57             71929.1             3944.61        -8.03505e+06         1.27126e+09
   14.59             71792.1             3941.34        -8.01246e+06         1.26761e+09
   14.61             71655.4             3938.05        -7.98987e+06         1.26397e+09
   14.63             71519.1             3934.75         -7.9673e+06         1.26031e+09
   14.65             71383.1             3931.43        -7.94474e+06         1.25666e+09
   14.67             71247.6             3928.09        -7.92219e+06         1.25301e+09
   14.69             71112.4             3924.74        -7.89965e+06         1.24935e+09
   14.71             70977.5             3921.37        -7.87713e+06         1.24569e+09
   14.73               70843             3917.98        -7.85461e+06         1.24203e+09
   14.75             70708.8             3914.57         -7.8321e+06         1.23836e+09
   14.77               70575             3911.14         -7.8096e+06          1.2347e+09
   14.79             70441.5             3907.69        -7.78712e+06         1.23103e+09
   14.81             70308.3             3904.22        -7.76464e+06         1.22736e+09
   14.83             70175.5             3900.73        -7.74216e+06         1.22369e+09
   14.85             70042.9             3897.21         -7.7197e+06         1.22001e+09
   14.87             69910.7             3893.67        -7.69725e+06         1.21633e+09
   14.89             69778.8              3890.1         -7.6748e+06         1.21265e+09
   14.91             69647.2             3886.51        -7.65236e+06         1.20897e+09
   14.93             69515.9             3882.89        -7.62993e+06         1.20528e+09
   14.95             69384.9             3879.24         -7.6075e+06         1.20159e+09
   14.97             69254.2             3875.57        -7.58508e+06          1.1979e+09
   14.99             69123.7             3871.86        -7.56267e+06         1.19421e+09
   15.01             68993.6             3868.13        -7.54026e+06         1.19051e+09
   15.03             68863.7             3864.37        -7.51786e+06         1.18681e+09
   15.05             68734.1             3860.58        -7.49546e+06          1.1831e+09
   15.07             68604.8             3856.75        -7.47307e+06          1.1794e+09
   15.09             68475.7              3852.9        -7.45069e+06         1.17569e+09
   15.11             68346.9             3849.01        -7.42831e+06         1.17197e+09
   15.13             68218.4             3845.08        -7.40594e+06         1.16826e+09
   15.15             68090.1             3841.13        -7.38357e+06         1.16454e+09
   15.17             67962.1             3837.13         -7.3612e+06         1.16082e+09
   15.19             67834.3              3833.1        -7.33884e+06         1.15709e+09
   15.21             67706.7             3829.04        -7.31648e+06         1.15336e+09
   15.23             67579.4             3824.94        -7.29413e+06         1.14963e+09
   15.25             67452.3              3820.8        -7.27178e+06          1.1459e+09
   15.27             67325.5             3816.62        -7.24943e+06         1.14216e+09
   15.29             67198.9             3812.41        -7.22709e+06         1.13842e+09
   15.31             67072.5             3808.15        -7.20476e+06         1.13467e+09
   15.33             66946.3             3803.85        -7.18242e+06         1.13092e+09
   15.35             66820.3             3799.51        -7.16009e+06         1.12717e+09
   15.37             66694.6             3795.14        -7.13776e+06         1.12342e+09
   15.39             66569.1             3790.71        -7.11544e+06         1.11966e+09
   15.41             66443.8             3786.25        -7.09312e+06          1.1159e+09
   15.43             66318.7             3781.74         -7.0708e+06         1.11213e+09
   15.45             66193.8             3777.19        -7.04849e+06         1.10836e+09
   15.47             66069.1             3772.59        -7.02618e+06         1.10459e+09
   15.49             65944.6             3767.95        -7.00387e+06         1.10082e+09
   15.51             65820.3             3763.27        -6.98157e+06         1.09704e+09
   15.53             65696.2             3758.53        -6.95927e+06         1.09326e+09
   15.55             65572.3             3753.75        -6.93697e+06         1.08947e+09
   15.57             65448.6             3748.92        -6.91468e+06         1.08568e+09
   15.59               65325             3744.05        -6.89239e+06         1.08189e+09
   15.61             65201.7             3739.12         -6.8701e+06          1.0781e+09
   15.63             65078.5             3734.15        -6.84782e+06          1.0743e+09
   15.65             64955.6             3729.12        -6.82554e+06          1.0705e+09
   15.67             64832.8             3724.05        -6.80327e+06         1.06669e+09
   15.69             64710.1             3718.92        -6.78099e+06         1.06289e+09
   15.71             64587.7             3713.75        -6.75873e+06         1.05907e+09
   15.73             64465.4             3708.52        -6.73647e+06         1.05526e+09
   15.75             64343.4             3703.24        -6.71421e+06         1.05144e+09
   15.77             64221.4              3697.9        -6.69195e+06         1.04762e+09
   15.79             64099.7             3692.52         -6.6697e+06          1.0438e+09
   15.81             63978.1             3687.07        -6.64746e+06         1.03997e+09
   15.83             63856.7             3681.58        -6.62522e+06         1.03614e+09
   15.85             63735.5             3676.03        -6.60299e+06         1.03231e+09
   15.87             63614.4             3670.42        -6.58076e+06         1.02847e+09
   15.89             63493.5             3664.76        -6.55854e+06         1.02463e+09
   15.91             63372.8             3659.05        -6.53632e+06         1.02079e+09
   15.93             63252.2             3653.27        -6.51411e+06         1.01695e+09
   15.95             63131.8             3647.44         -6.4919e+06          1.0131e+09
   15.97             63011.6             3641.55        -6.46971e+06         1.00925e+09
   15.99             62891.5             3635.61        -6.44751e+06          1.0054e+09
   16.01             62771.6              3629.6        -6.42533e+06         1.00154e+09
   16.03             62651.8             3623.54        -6.40315e+06         9.97684e+08
   16.05             62532.2             3617.42        -6.38099e+06         9.93823e+08
   16.07             62412.8             3611.24        -6.35882e+06          9.8996e+08
   16.09             62293.5                3605        -6.33667e+06         9.86095e+08
   16.11             62174.4              3598.7        -6.31453e+06         9.82227e+08
   16.13             62055.4             3592.33        -6.29239e+06         9.78357e+08
   16.15             61936.7             3585.91        -6.27027e+06         9.74484e+08
   16.17               61818             3579.43        -6.24815e+06          9.7061e+08
   16.19             61699.6             3572.88        -6.22605e+06         9.66733e+08
   16.21             61581.3             3566.28        -6.20395e+06         9.62855e+08
   16.23             61463.1             3559.61        -6.18187e+06         9.58974e+08
   16.25             61345.2             3552.88         -6.1598e+06         9.55091e+08
   16.27             61227.3             3546.08        -6.13774e+06         9.51207e+08
   16.29             61109.7             3539.22        -6.11569e+06         9.47321e+08
   16.31             60992.2              3532.3        -6.09365e+06         9.43433e+08
   16.33             60874.9             3525.32        -6.07163e+06         9.39543e+08
   16.35             60757.7             3518.27        -6.04962e+06         9.35652e+08
   16.37             60640.7             3511.16        -6.02762e+06          9.3176e+08
   16.39             60523.9             3503.99        -6.00564e+06         9.27866e+08
   16.41             60407.3             3496.75        -5.98367e+06         9.23971e+08
   16.43             60290.8             3489.44        -5.96172e+06         9.20074e+08
   16.45             60174.5             3482.07        -5.93978e+06         9.16177e+08
   16.47             60058.4             3474.64        -5.91786e+06         9.12278e+08
   16.49             59942.4             3467.14        -5.89595e+06         9.08379e+08
   16.51             59826.6             3459.57        -5.87407e+06         9.04478e+08
   16.53               59711             3451.94         -5.8522e+06         9.00577e+08
   16.55             59595.5             3444.24        -5.83034e+06         8.96675e+08
   16.57             59480.3             3436.48        -5.80851e+06         8.92773e+08
   16.59             59365.2             3428.65         -5.7867e+06          8.8887e+08
   16.61             59250.3             3420.75         -5.7649e+06         8.84967e+08
   16.63             59135.6             3412.79        -5.74313e+06         8.81063e+08
   16.65             59021.1             3404.77        -5.72137e+06          8.7716e+08
   16.67             58906.7             3396.67        -5.69964e+06         8.73256e+08
   16.69             58792.6             3388.51        -5.67793e+06         8.69352e+08
   16.71             58678.6             3380.28        -5.65624e+06         8.65449e+08
   16.73             58564.8             3371.99        -5.63458e+06         8.61545e+08
   16.75             58451.3             3363.63        -5.61294e+06         8.57642e+08
   16.77             58337.9              3355.2        -5.59132e+06         8.53739e+08
   16.79             58224.7              3346.7        -5.56973e+06         8.49837e+08
   16.81             58111.7             3338.14        -5.54816e+06         8.45936e+08
   16.83             57998.9             3329.51        -5.52662e+06         8.42035e+08
   16.85             57886.3             3320.82         -5.5051e+06         8.38135e+08
   16.87               57774             3312.06        -5.48361e+06         8.34236e+08
   16.89             57661.8             3303.23        -5.46215e+06         8.30338e+08
   16.91             57549.9             3294.33        -5.44072e+06         8.26441e+08
   16.93             57438.1             3285.37        -5.41931e+06         8.22546e+08
   16.95             57326.6             3276.34        -5.39794e+06         8.18652e+08
   16.97             57215.3             3267.24         -5.3766e+06          8.1476e+08
   16.99             57104.2             3258.08        -5.35528e+06         8.10869e+08
   17.01             56993.3             3248.85          -5.334e+06          8.0698e+08
   17.03             56882.7             3239.55        -5.31275e+06         8.03093e+08
   17.05             56772.3             3230.19        -5.29153e+06         7.99208e+08
   17.07             56662.1             3220.76        -5.27035e+06         7.95325e+08
   17.09             56552.1             3211.27         -5.2492e+06         7.91444e+08
   17.11             56442.4             3201.71        -5.22808e+06         7.87566e+08
   17.13               56333             3192.08          -5.207e+06          7.8369e+08
   17.15             56223.7             3182.39        -5.18596e+06         7.79817e+08
   17.17             56114.7             3172.63        -5.16495e+06         7.75947e+08
   17.19               56006              3162.8        -5.14398e+06         7.72079e+08
   17.21             55897.5             3152.92        -5.12304e+06         7.68214e+08
   17.23             55789.2             3142.96        -5.10215e+06         7.64353e+08
   17.25             55681.2             3132.94        -5.08129e+06         7.60494e+08
   17.27             55573.5             3122.86        -5.06048e+06          7.5664e+08
   17.29               55466             3112.71         -5.0397e+06         7.52788e+08
   17.31             55358.8              3102.5        -5.01897e+06          7.4894e+08
   17.33             55251.8             3092.23        -4.99827e+06         7.45096e+08
   17.35             55145.1             3081.89        -4.97762e+06         7.41256e+08
   17.37             55038.7             3071.49        -4.95702e+06         7.37419e+08
   17.39             54932.6             3061.02        -4.93645e+06         7.33587e+08
   17.41             54826.7             3050.49        -4.91593e+06         7.29759e+08
   17.43             54721.1             3039.91        -4.89546e+06         7.25935e+08
   17.45             54615.8             3029.25        -4.87503e+06         7.22116e+08
   17.47             54510.8             3018.54        -4.85465e+06         7.18302e+08
   17.49               54406             3007.76        -4.83431e+06         7.14492e+08
   17.51             54301.6             2996.93        -4.81402e+06         7.10687e+08
   17.53             54197.4             2986.03        -4.79379e+06         7.06887e+08
   17.55             54093.5             2975.07         -4.7736e+06         7.03092e+08
   17.57               53990             2964.06        -4.75345e+06         6.99302e+08
   17.59             53886.7             2952.98        -4.73336e+06         6.95518e+08
   17.61             53783.8             2941.85        -4.71333e+06          6.9174e+08
   17.63             53681.1             2930.65        -4.69334e+06         6.87966e+08
   17.65             53578.8              2919.4         -4.6734e+06         6.84199e+08
   17.67             53476.7             2908.09        -4.65352e+06         6.80438e+08
   17.69               53375             2896.72        -4.63369e+06         6.76682e+08
   17.71             53273.6              2885.3        -4.61392e+06         6.72933e+08
   17.73             53172.5             2873.82         -4.5942e+06          6.6919e+08
   17.75             53071.8             2862.28        -4.57453e+06         6.65453e+08
   17.77             52971.4             2850.69        -4.55492e+06         6.61723e+08
   17.79             52871.3             2839.04        -4.53537e+06            6.58e+08
   17.81             52771.5             2827.34        -4.51588e+06         6.54283e+08
   17.83             52672.1             2815.58        -4.49644e+06         6.50574e+08
   17.85               52573             2803.77        -4.47706e+06         6.46871e+08
   17.87             52474.2             2791.91        -4.45775e+06         6.43175e+08
   17.89             52375.8             2779.99        -4.43849e+06         6.39487e+08
   17.91             52277.7             2768.03        -4.41929e+06         6.35806e+08
   17.93               52180             2756.01        -4.40015e+06         6.32133e+08
   17.95             52082.6             2743.94        -4.38108e+06         6.28467e+08
   17.97             51985.6             2731.82        -4.36206e+06         6.24809e+08
   17.99               51889             2719.66        -4.34311e+06         6.21159e+08
   18.01             51792.7             2707.44        -4.32423e+06         6.17517e+08
   18.03             51696.7             2695.17         -4.3054e+06         6.13883e+08
   18.05             51601.1             2682.86        -4.28664e+06         6.10257e+08
   18.07             51505.9              2670.5        -4.26795e+06          6.0664e+08
   18.09             51411.1              2658.1        -4.24932e+06         6.03031e+08
   18.11             51316.6             2645.65        -4.23076e+06         5.99431e+08
   18.13             51222.5             2633.15        -4.21227e+06          5.9584e+08
   18.15             51128.8             2620.61        -4.19384e+06         5.92257e+08
   18.17             51035.4             2608.02        -4.17548e+06         5.88683e+08
   18.19             50942.4              2595.4        -4.15719e+06         5.85119e+08
   18.21             50849.9             2582.73        -4.13897e+06         5.81563e+08
   18.23             50757.6             2570.02        -4.12082e+06         5.78017e+08
   18.25             50665.8             2557.27        -4.10273e+06         5.74481e+08
   18.27             50574.4             2544.47        -4.08472e+06         5.70954e+08
   18.29             50483.3             2531.64        -4.06678e+06         5.67436e+08
   18.31             50392.7             2518.77        -4.04891e+06         5.63929e+08
   18.33             50302.4             2505.86        -4.03112e+06         5.60431e+08
   18.35             50212.6             2492.92        -4.01339e+06         5.56943e+08
   18.37             50123.1             2479.94        -3.99574e+06         5.53465e+08
   18.39               50034             2466.92        -3.97816e+06         5.49998e+08
   18.41             49945.4             2453.87        -3.96066e+06         5.46541e+08
   18.43             49857.1             2440.78        -3.94323e+06         5.43094e+08
   18.45             49769.2             2427.66        -3.92587e+06         5.39658e+08
   18.47             49681.8             2414.51        -3.90859e+06         5.36232e+08
   18.49             49594.7             2401.33        -3.89139e+06         5.32817e+08
   18.51             49508.1             2388.12        -3.87426e+06         5.29413e+08
   18.53             49421.9             2374.87        -3.85721e+06          5.2602e+08
   18.55               49336              2361.6        -3.84024e+06         5.22638e+08
   18.57             49250.6              2348.3        -3.82334e+06         5.19267e+08
   18.59             49165.7             2334.97        -3.80652e+06         5.15907e+08
   18.61             49081.1             2321.61        -3.78978e+06         5.12559e+08
   18.63             48996.9             2308.23        -3.77312e+06         5.09222e+08
   18.65             48913.2             2294.82        -3.75653e+06         5.05896e+08
   18.67             48829.9             2281.39        -3.74003e+06         5.02582e+08
   18.69               48747             2267.94         -3.7236e+06          4.9928e+08
   18.71             48664.5             2254.46        -3.70726e+06          4.9599e+08
   18.73             48582.5             2240.96        -3.69099e+06         4.92711e+08
   18.75             48500.8             2227.45        -3.67481e+06         4.89445e+08
   18.77             48419.6             2213.91        -3.65871e+06          4.8619e+08
   18.79             48338.9             2200.35        -3.64269e+06         4.82948e+08
   18.81             48258.5             2186.77        -3.62675e+06         4.79718e+08
   18.83             48178.6             2173.18        -3.61089e+06           4.765e+08
   18.85             48099.1             2159.57        -3.59511e+06         4.73294e+08
   18.87               48020             2145.95        -3.57942e+06         4.70101e+08
   18.89             47941.4             2132.31        -3.56381e+06         4.66921e+08
   18.91             47863.2             2118.66        -3.54828e+06         4.63753e+08
   18.93             47785.4             2104.99        -3.53283e+06         4.60598e+08
   18.95               47708             2091.32        -3.51747e+06         4.57456e+08
   18.97             47631.1             2077.63        -3.50219e+06         4.54327e+08
   18.99             47554.6             2063.93          -3.487e+06          4.5121e+08
   19.01             47478.6             2050.23        -3.47189e+06         4.48107e+08
   19.03             47402.9             2036.51        -3.45686e+06         4.45016e+08
   19.05             47327.7             2022.79        -3.44192e+06         4.41939e+08
   19.07             47252.9             2009.06        -3.42706e+06         4.38875e+08
   19.09             47178.6             1995.33        -3.41229e+06         4.35824e+08
   19.11             47104.7              1981.6        -3.39761e+06         4.32787e+08
   19.13             47031.2             1967.85          -3.383e+06         4.29763e+08
   19.15             46958.2             1954.11        -3.36849e+06         4.26752e+08
   19.17             46885.5             1940.37        -3.35406e+06         4.23755e+08
   19.19             46813.3             1926.62        -3.33971e+06         4.20772e+08
   19.21             46741.6             1912.88        -3.32545e+06         4.17802e+08
   19.23             46670.2             1899.13        -3.31127e+06         4.14846e+08
   19.25             46599.3             1885.39        -3.29719e+06         4.11904e+08
   19.27             46528.8             1871.65        -3.28318e+06         4.08976e+08
   19.29             46458.8             1857.92        -3.26927e+06         4.06061e+08
   19.31             46389.1             1844.19        -3.25543e+06         4.03161e+08
   19.33             46319.9             1830.47        -3.24169e+06         4.00274e+08
   19.35             46251.1             1816.75        -3.22803e+06         3.97401e+08
   19.37             46182.7             1803.04        -3.21446e+06         3.94543e+08
   19.39             46114.8             1789.34        -3.20097e+06         3.91698e+08
   19.41             46047.3             1775.65        -3.18757e+06         3.88868e+08
   19.43             45980.1             1761.97        -3.17426e+06         3.86052e+08
   19.45             45913.4              1748.3        -3.16103e+06          3.8325e+08
   19.47             45847.2             1734.65        -3.14789e+06         3.80463e+08
   19.49             45781.3                1721        -3.13483e+06          3.7769e+08
   19.51             45715.8             1707.37        -3.12187e+06         3.74931e+08
   19.53             45650.8             1693.76        -3.10898e+06         3.72187e+08
   19.55             45586.2             1680.16        -3.09619e+06         3.69457e+08
   19.57               45522             1666.58        -3.08347e+06         3.66741e+08
   19.59             45458.1             1653.01        -3.07085e+06          3.6404e+08
   19.61             45394.7             1639.47        -3.05831e+06         3.61354e+08
   19.63             45331.7             1625.94        -3.04586e+06         3.58682e+08
   19.65             45269.1             1612.44        -3.03349e+06         3.56025e+08
   19.67             45206.9             1598.95        -3.02121e+06         3.53382e+08
   19.69             45145.1             1585.49        -3.00901e+06         3.50754e+08
   19.71             45083.7             1572.05         -2.9969e+06         3.48141e+08
   19.73             45022.6             1558.63        -2.98487e+06         3.45542e+08
   19.75               44962             1545.24        -2.97293e+06         3.42958e+08
   19.77             44901.8             1531.88        -2.96108e+06         3.40389e+08
   19.79             44841.9             1518.54        -2.94931e+06         3.37835e+08
   19.81             44782.4             1505.23        -2.93762e+06         3.35295e+08
   19.83             44723.3             1491.94        -2.92602e+06          3.3277e+08
   19.85             44664.6             1478.69         -2.9145e+06          3.3026e+08
   19.87             44606.3             1465.46        -2.90307e+06         3.27764e+08
   19.89             44548.3             1452.27        -2.89172e+06         3.25284e+08
   19.91             44490.7              1439.1        -2.88045e+06         3.22818e+08
   19.93             44433.5             1425.97        -2.86927e+06         3.20367e+08
   19.95             44376.6             1412.87        -2.85817e+06         3.17931e+08
   19.97             44320.1             1399.81        -2.84715e+06          3.1551e+08
   19.99               44264             1386.78        -2.83622e+06         3.13104e+08
